t (s),V (mV)
0,19.3739
0.967,19.3548
1.901,19.3496
2.867,19.3299
3.856,19.3142
4.856,19.3008
5.856,19.283
6.856,19.2636
7.856,19.2448
8.856,19.2255
9.855,19.2058
10.856,19.1885
11.856,19.1706
12.855,19.1515
13.855,19.1355
14.856,19.118
15.856,19.1018
16.856,19.0861
17.856,19.068
18.856,19.0506
19.856,19.0341
20.856,19.0187
21.855,19.0008
22.856,18.9845
23.856,18.9673
24.856,18.9495
25.855,18.9348
26.855,18.9174
27.856,18.9035
28.856,18.8843
29.855,18.8687
30.856,18.8531
31.856,18.8364
32.856,18.821
33.856,18.8045
34.856,18.789
35.856,18.7719
36.856,18.755
37.855,18.7388
38.856,18.7231
39.856,18.7085
40.856,18.6933
41.856,18.6778
42.856,18.6639
43.856,18.6499
44.856,18.6337
45.856,18.6189
46.856,18.6037
47.856,18.5878
48.856,18.5733
49.856,18.5598
50.856,18.5431
51.856,18.527
52.856,18.5128
53.855,18.4964
54.856,18.4823
55.856,18.4671
56.856,18.4528
57.856,18.4379
58.856,18.4233
59.856,18.4094
60.855,18.3948
61.856,18.3824
62.856,18.3662
63.856,18.3536
64.856,18.3377
65.856,18.3241
66.856,18.3077
67.856,18.2944
68.856,18.2785
69.856,18.2641
70.856,18.2487
71.856,18.2353
72.856,18.22
73.856,18.2058
74.856,18.1912
75.856,18.1762
76.856,18.1619
77.856,18.1481
78.856,18.135
79.856,18.1214
80.856,18.106
81.856,18.092
82.856,18.0777
83.856,18.0629
84.856,18.0492
85.856,18.0356
86.856,18.0214
87.856,18.0067
88.856,17.992
89.855,17.977
90.856,17.9621
91.856,17.9472
92.856,17.9318
93.856,17.9172
94.856,17.9019
95.856,17.8882
96.856,17.8735
97.856,17.8605
98.856,17.846
99.856,17.8318
100.856,17.8175
101.856,17.8037
102.856,17.7897
103.856,17.7768
104.856,17.7627
105.856,17.7502
106.856,17.737
107.856,17.7244
108.856,17.7108
109.856,17.6975
110.856,17.6853
111.856,17.6711
112.856,17.6612
113.856,17.648
114.856,17.6365
115.856,17.6236
116.856,17.6111
117.856,17.5983
118.856,17.5868
119.856,17.5735
120.856,17.5596
121.856,17.5488
122.856,17.5361
123.856,17.524
124.856,17.5096
125.856,17.4985
126.856,17.4858
127.856,17.4735
128.856,17.4611
129.856,17.4482
130.856,17.4355
131.856,17.4227
132.856,17.4116
133.856,17.3991
134.856,17.3855
135.856,17.3743
136.856,17.3604
137.856,17.3471
138.856,17.3357
139.856,17.3219
140.856,17.3092
141.856,17.2976
142.856,17.2849
143.856,17.2719
144.856,17.2589
145.856,17.2461
146.856,17.2322
147.856,17.2189
148.856,17.2064
149.856,17.1953
150.856,17.1811
151.856,17.1671
152.856,17.1562
153.856,17.1434
154.856,17.1296
155.856,17.1173
156.856,17.1032
157.856,17.0898
158.856,17.0768
159.856,17.0642
160.856,17.0499
161.856,17.0355
162.856,17.024
163.856,17.0111
164.856,16.9991
165.856,16.9838
166.856,16.9733
167.856,16.9593
168.856,16.9484
169.856,16.9347
170.856,16.9242
171.856,16.9115
172.856,16.899
173.856,16.8868
174.856,16.8734
175.856,16.8609
176.856,16.8503
177.856,16.838
178.856,16.8263
179.856,16.813
180.856,16.802
181.856,16.7892
182.856,16.7771
183.856,16.7657
184.856,16.7521
185.856,16.7388
186.855,16.7266
187.856,16.7146
188.856,16.7007
189.856,16.6892
190.856,16.6751
191.856,16.6643
192.856,16.6518
193.856,16.6395
194.856,16.627
195.856,16.6149
196.856,16.6026
197.856,16.5902
198.856,16.5772
199.856,16.5648
200.856,16.5521
201.856,16.5393
202.856,16.5265
203.856,16.5141
204.856,16.5022
205.856,16.4901
206.856,16.4781
207.856,16.464
208.856,16.4538
209.856,16.4396
210.856,16.4276
211.856,16.4124
212.856,16.4001
213.856,16.3848
214.856,16.3723
215.856,16.3593
216.856,16.3458
217.856,16.3349
218.856,16.3231
219.856,16.3115
220.856,16.2982
221.856,16.2874
222.856,16.275
223.856,16.2632
224.856,16.2514
225.856,16.2404
226.856,16.2281
227.856,16.2171
228.856,16.2062
229.856,16.1961
230.856,16.1854
231.856,16.1738
232.856,16.1639
233.856,16.1521
234.856,16.1414
235.856,16.1289
236.856,16.1171
237.856,16.106
238.856,16.0929
239.856,16.0821
240.856,16.0704
241.856,16.0581
242.856,16.0459
243.856,16.0333
244.856,16.0209
245.856,16.0071
246.856,15.9947
247.856,15.9839
248.856,15.9698
249.856,15.9582
250.856,15.944
251.855,15.9304
252.856,15.9173
253.855,15.9047
254.856,15.8936
255.856,15.8812
256.856,15.87
257.856,15.858
258.856,15.8458
259.856,15.8345
260.856,15.8223
261.856,15.811
262.856,15.799
263.856,15.7884
264.857,15.777
265.856,15.7663
266.856,15.7576
267.858,15.7419
268.856,15.7349
269.856,15.7248
270.856,15.7122
271.856,15.7021
272.856,15.6907
273.856,15.6808
274.856,15.6693
275.856,15.6572
276.856,15.6458
277.856,15.6342
278.856,15.6238
279.856,15.6114
280.856,15.6007
281.856,15.5892
282.856,15.5767
283.856,15.5663
284.856,15.5546
285.856,15.5414
286.856,15.5279
287.856,15.5148
288.856,15.5018
289.856,15.49
290.856,15.4778
291.856,15.4653
292.856,15.454
293.856,15.4418
294.856,15.4311
295.857,15.4197
296.856,15.4088
297.856,15.397
298.856,15.3858
299.856,15.3756
300.856,15.3643
301.856,15.3534
302.855,15.3421
303.855,15.3319
304.856,15.3207
305.856,15.3098
306.856,15.3007
307.856,15.2908
308.856,15.2804
309.856,15.2696
310.856,15.2593
311.856,15.2473
312.856,15.2381
313.856,15.2262
314.856,15.2164
315.857,15.2054
316.856,15.1948
317.856,15.1862
318.856,15.1742
319.856,15.1631
320.856,15.1528
321.856,15.1415
322.856,15.1315
323.856,15.1196
324.856,15.1096
325.856,15.0991
326.856,15.0887
327.855,15.0781
328.856,15.0674
329.856,15.0547
330.856,15.0444
331.857,15.0339
332.856,15.023
333.856,15.0132
334.856,15.002
335.856,14.9915
336.856,14.9806
337.856,14.968
338.856,14.9583
339.856,14.9457
340.856,14.9346
341.856,14.9254
342.856,14.913
343.856,14.9038
344.856,14.8914
345.856,14.881
346.856,14.8707
347.857,14.8574
348.856,14.8483
349.856,14.8374
350.856,14.8248
351.856,14.8127
352.855,14.803
353.856,14.7912
354.856,14.7798
355.856,14.7684
356.856,14.7571
357.856,14.7456
358.856,14.7357
359.856,14.7245
360.856,14.7126
361.856,14.7023
362.856,14.6923
363.855,14.681
364.856,14.6701
365.856,14.662
366.856,14.6524
367.856,14.6419
368.856,14.6351
369.856,14.6232
370.856,14.6163
371.856,14.6058
372.856,14.5952
373.856,14.5852
374.856,14.5737
375.856,14.5647
376.856,14.5539
377.856,14.544
378.857,14.5339
379.856,14.5229
380.856,14.5115
381.856,14.5017
382.855,14.4906
383.856,14.4809
384.856,14.4707
385.856,14.4613
386.856,14.45
387.856,14.4398
388.856,14.4289
389.856,14.418
390.856,14.407
391.856,14.3967
392.856,14.3852
393.856,14.3747
394.856,14.3626
395.856,14.3527
396.856,14.3427
397.856,14.3318
398.856,14.3214
399.856,14.3122
400.856,14.2979
401.856,14.2908
402.856,14.2772
403.856,14.2665
404.856,14.2558
405.856,14.2465
406.856,14.2336
407.856,14.2235
408.856,14.2127
409.856,14.2037
410.856,14.1926
411.856,14.1821
412.856,14.1723
413.856,14.1621
414.856,14.1519
415.857,14.1418
416.856,14.1321
417.855,14.1226
418.856,14.1128
419.856,14.1027
420.856,14.0923
421.856,14.0818
422.855,14.0719
423.856,14.062
424.856,14.0518
425.856,14.0413
426.856,14.0317
427.856,14.0219
428.856,14.0119
429.856,14.0026
430.856,13.9936
431.856,13.984
432.856,13.9742
433.856,13.9648
434.856,13.9551
435.856,13.9459
436.856,13.9364
437.856,13.9269
438.856,13.9176
439.856,13.9077
440.856,13.8979
441.856,13.8879
442.856,13.8783
443.856,13.8685
444.856,13.8589
445.856,13.849
446.856,13.8402
447.856,13.8303
448.855,13.8206
449.856,13.8105
450.855,13.8009
451.856,13.7912
452.856,13.7798
453.856,13.7703
454.855,13.7602
455.856,13.75
456.856,13.7401
457.856,13.7307
458.856,13.7213
459.856,13.7108
460.856,13.7011
461.856,13.6908
462.856,13.6816
463.855,13.6703
464.856,13.6601
465.856,13.6499
466.856,13.6406
467.856,13.6313
468.856,13.6227
469.856,13.6124
470.855,13.6025
471.856,13.5942
472.856,13.585
473.855,13.5748
474.856,13.5654
475.856,13.5567
476.856,13.5458
477.856,13.536
478.856,13.5268
479.856,13.5167
480.856,13.5055
481.856,13.4964
482.856,13.4874
483.856,13.4782
484.856,13.4681
485.856,13.4588
486.856,13.4483
487.856,13.4379
488.856,13.4292
489.856,13.4198
490.856,13.4098
491.856,13.3991
492.856,13.3895
493.856,13.3799
494.856,13.3699
495.856,13.361
496.856,13.3518
497.856,13.3436
498.856,13.3336
499.856,13.3261
500.856,13.3158
501.856,13.3057
502.856,13.2958
503.856,13.2885
504.856,13.2784
505.856,13.2699
506.856,13.2596
507.856,13.2512
508.856,13.2417
509.856,13.2304
510.856,13.2215
511.856,13.2144
512.856,13.2028
513.856,13.1921
514.856,13.1845
515.856,13.1744
516.856,13.1659
517.856,13.1547
518.856,13.1464
519.856,13.1363
520.856,13.1267
521.856,13.1175
522.856,13.1069
523.856,13.098
524.856,13.0897
525.856,13.08
526.855,13.0692
527.855,13.0616
528.856,13.0521
529.856,13.0448
530.856,13.0361
531.855,13.0259
532.856,13.0177
533.856,13.0085
534.856,12.9992
535.856,12.9895
536.856,12.9807
537.856,12.9713
538.856,12.9617
539.856,12.9523
540.856,12.9428
541.856,12.9337
542.856,12.9242
543.856,12.9141
544.856,12.9049
545.856,12.8953
546.856,12.8854
547.856,12.8768
548.855,12.8677
549.856,12.8581
550.856,12.8494
551.856,12.8389
552.856,12.8306
553.856,12.8221
554.855,12.8142
555.856,12.8032
556.856,12.7965
557.856,12.7866
558.856,12.7782
559.856,12.7691
560.856,12.7586
561.856,12.7493
562.856,12.7395
563.856,12.7285
564.856,12.7195
565.856,12.7089
566.856,12.6998
567.856,12.6919
568.856,12.6811
569.855,12.6716
570.856,12.662
571.856,12.6515
572.856,12.6419
573.856,12.6332
574.856,12.6241
575.856,12.6137
576.856,12.6049
577.856,12.596
578.856,12.5863
579.856,12.5769
580.856,12.5678
581.856,12.5577
582.857,12.5486
583.856,12.5397
584.856,12.5309
585.856,12.5218
586.856,12.513
587.856,12.5035
588.856,12.4949
589.863,12.4965
590.856,12.4774
591.857,12.4698
592.856,12.461
593.856,12.4523
594.857,12.4454
595.856,12.4367
596.856,12.4286
597.856,12.4195
598.856,12.4103
599.857,12.4054
600.856,12.3965
601.856,12.3887
602.856,12.3798
603.856,12.3714
604.856,12.3615
605.856,12.3535
606.856,12.3447
607.856,12.3364
608.856,12.3275
609.856,12.3181
610.856,12.3102
611.856,12.3025
612.856,12.2943
613.856,12.2853
614.856,12.2748
615.856,12.2663
616.856,12.2576
617.856,12.2468
618.855,12.2382
619.856,12.2282
620.856,12.2184
621.856,12.2101
622.856,12.2006
623.856,12.1919
624.857,12.1821
625.856,12.1734
626.856,12.1648
627.856,12.1562
628.856,12.1468
629.855,12.1375
630.856,12.1283
631.856,12.1194
632.856,12.1103
633.856,12.1004
634.856,12.0924
635.856,12.0829
636.856,12.0744
637.856,12.0663
638.856,12.0577
639.856,12.049
640.856,12.04
641.856,12.0323
642.856,12.0222
643.856,12.0131
644.856,12.0039
645.856,11.9951
646.856,11.9854
647.856,11.977
648.856,11.9695
649.856,11.9617
650.856,11.9531
651.856,11.9447
652.856,11.9365
653.856,11.9292
654.855,11.9209
655.857,11.9121
656.856,11.9036
657.856,11.8955
658.856,11.8871
659.856,11.8787
660.856,11.8686
661.856,11.8614
662.856,11.8534
663.856,11.845
664.856,11.8354
665.856,11.8275
666.856,11.819
667.856,11.8099
668.856,11.8027
669.856,11.7918
670.856,11.7833
671.856,11.7761
672.856,11.7666
